         Index            Ts             t            HF        Weight            Tr
           [#]          [°C]           [s]          [mW]          [mg]          [°C]
             0  5.00168e+002  0.00000e+000 -3.31979e+001  8.78365e+000  4.80000e+002
             1  4.99988e+002  1.00000e+000 -3.48712e+001  8.78375e+000  4.80833e+002
             2  5.00030e+002  2.00000e+000 -3.53473e+001  8.78383e+000  4.81667e+002
             3  5.00135e+002  3.00000e+000 -3.58981e+001  8.78393e+000  4.82500e+002
             4  5.00300e+002  4.00000e+000 -3.71797e+001  8.78403e+000  4.83333e+002
             5  5.00539e+002  5.00000e+000 -3.85730e+001  8.78419e+000  4.84167e+002
             6  5.00863e+002  6.00000e+000 -4.01262e+001  8.78446e+000  4.85000e+002
             7  5.01262e+002  7.00000e+000 -4.17876e+001  8.78478e+000  4.85833e+002
             8  5.01741e+002  8.00000e+000 -4.36836e+001  8.78528e+000  4.86667e+002
             9  5.02303e+002  9.00000e+000 -4.57678e+001  8.78587e+000  4.87500e+002
            10  5.02941e+002  1.00000e+001 -4.79487e+001  8.78659e+000  4.88333e+002
            11  5.03671e+002  1.10000e+001 -5.01863e+001  8.78741e+000  4.89167e+002
            12  5.04467e+002  1.20000e+001 -5.26124e+001  8.78857e+000  4.90000e+002
            13  5.05331e+002  1.30000e+001 -5.53200e+001  8.78961e+000  4.90833e+002
            14  5.06236e+002  1.40000e+001 -5.82636e+001  8.79068e+000  4.91667e+002
            15  5.07172e+002  1.50000e+001 -6.12538e+001  8.79176e+000  4.92500e+002
            16  5.08137e+002  1.60000e+001 -6.39032e+001  8.79292e+000  4.93333e+002
            17  5.09131e+002  1.70000e+001 -6.65023e+001  8.79395e+000  4.94167e+002
            18  5.10142e+002  1.80000e+001 -6.90185e+001  8.79489e+000  4.95000e+002
            19  5.11169e+002  1.90000e+001 -7.14309e+001  8.79574e+000  4.95833e+002
            20  5.12199e+002  2.00000e+001 -7.37738e+001  8.79656e+000  4.96667e+002
            21  5.13234e+002  2.10000e+001 -7.59090e+001  8.79705e+000  4.97500e+002
            22  5.14270e+002  2.20000e+001 -7.79518e+001  8.79754e+000  4.98333e+002
            23  5.15312e+002  2.30000e+001 -7.98787e+001  8.79795e+000  4.99167e+002
            24  5.16339e+002  2.40000e+001 -8.17343e+001  8.79834e+000  5.00000e+002
            25  5.17376e+002  2.50000e+001 -8.34234e+001  8.79844e+000  5.00833e+002
            26  5.18401e+002  2.60000e+001 -8.50342e+001  8.79865e+000  5.01667e+002
            27  5.19417e+002  2.70000e+001 -8.65275e+001  8.79885e+000  5.02500e+002
            28  5.20432e+002  2.80000e+001 -8.79276e+001  8.79906e+000  5.03333e+002
            29  5.21439e+002  2.90000e+001 -8.92429e+001  8.79924e+000  5.04167e+002
            30  5.22440e+002  3.00000e+001 -9.05306e+001  8.79945e+000  5.05000e+002
            31  5.23433e+002  3.10000e+001 -9.17155e+001  8.79968e+000  5.05833e+002
            32  5.24410e+002  3.20000e+001 -9.28667e+001  8.79994e+000  5.06667e+002
            33  5.25392e+002  3.30000e+001 -9.39446e+001  8.80028e+000  5.07500e+002
            34  5.26366e+002  3.40000e+001 -9.49466e+001  8.80062e+000  5.08333e+002
            35  5.27320e+002  3.50000e+001 -9.58573e+001  8.80098e+000  5.09167e+002
            36  5.28282e+002  3.60000e+001 -9.67462e+001  8.80136e+000  5.10000e+002
            37  5.29226e+002  3.70000e+001 -9.75533e+001  8.80183e+000  5.10833e+002
            38  5.30154e+002  3.80000e+001 -9.83448e+001  8.80228e+000  5.11667e+002
            39  5.31095e+002  3.90000e+001 -9.90914e+001  8.80273e+000  5.12500e+002
            40  5.32029e+002  4.00000e+001 -9.97889e+001  8.80320e+000  5.13333e+002
            41  5.32946e+002  4.10000e+001 -1.00441e+002  8.80372e+000  5.14167e+002
            42  5.33863e+002  4.20000e+001 -1.01088e+002  8.80422e+000  5.15000e+002
            43  5.34772e+002  4.30000e+001 -1.01713e+002  8.80473e+000  5.15833e+002
            44  5.35676e+002  4.40000e+001 -1.02320e+002  8.80524e+000  5.16667e+002
            45  5.36568e+002  4.50000e+001 -1.02841e+002  8.80576e+000  5.17500e+002
            46  5.37463e+002  4.60000e+001 -1.03388e+002  8.80627e+000  5.18333e+002
            47  5.38354e+002  4.70000e+001 -1.03921e+002  8.80677e+000  5.19167e+002
            48  5.39233e+002  4.80000e+001 -1.04431e+002  8.80726e+000  5.20000e+002
            49  5.40119e+002  4.90000e+001 -1.04919e+002  8.80772e+000  5.20833e+002
            50  5.40987e+002  5.00000e+001 -1.05412e+002  8.80818e+000  5.21667e+002
            51  5.41858e+002  5.10000e+001 -1.05898e+002  8.80864e+000  5.22500e+002
            52  5.42725e+002  5.20000e+001 -1.06379e+002  8.80909e+000  5.23333e+002
            53  5.43588e+002  5.30000e+001 -1.06804e+002  8.80950e+000  5.24167e+002
            54  5.44447e+002  5.40000e+001 -1.07264e+002  8.80993e+000  5.25000e+002
            55  5.45306e+002  5.50000e+001 -1.07712e+002  8.81035e+000  5.25833e+002
            56  5.46160e+002  5.60000e+001 -1.08149e+002  8.81077e+000  5.26667e+002
            57  5.47012e+002  5.70000e+001 -1.08561e+002  8.81117e+000  5.27500e+002
            58  5.47857e+002  5.80000e+001 -1.08988e+002  8.81157e+000  5.28333e+002
            59  5.48705e+002  5.90000e+001 -1.09416e+002  8.81199e+000  5.29167e+002
            60  5.49551e+002  6.00000e+001 -1.09841e+002  8.81240e+000  5.30000e+002
            61  5.50399e+002  6.10000e+001 -1.10234e+002  8.81280e+000  5.30833e+002
            62  5.51233e+002  6.20000e+001 -1.10644e+002  8.81321e+000  5.31667e+002
            63  5.52081e+002  6.30000e+001 -1.11055e+002  8.81362e+000  5.32500e+002
            64  5.52919e+002  6.40000e+001 -1.11465e+002  8.81403e+000  5.33333e+002
            65  5.53752e+002  6.50000e+001 -1.11854e+002  8.81445e+000  5.34167e+002
            66  5.54585e+002  6.60000e+001 -1.12251e+002  8.81485e+000  5.35000e+002
            67  5.55414e+002  6.70000e+001 -1.12647e+002  8.81526e+000  5.35833e+002
            68  5.56241e+002  6.80000e+001 -1.13043e+002  8.81567e+000  5.36667e+002
            69  5.57071e+002  6.90000e+001 -1.13421e+002  8.81606e+000  5.37500e+002
            70  5.57904e+002  7.00000e+001 -1.13804e+002  8.81646e+000  5.38333e+002
            71  5.58730e+002  7.10000e+001 -1.14187e+002  8.81686e+000  5.39167e+002
            72  5.59549e+002  7.20000e+001 -1.14569e+002  8.81725e+000  5.40000e+002
            73  5.60383e+002  7.30000e+001 -1.14935e+002  8.81764e+000  5.40833e+002
            74  5.61205e+002  7.40000e+001 -1.15307e+002  8.81803e+000  5.41667e+002
            75  5.62027e+002  7.50000e+001 -1.15678e+002  8.81841e+000  5.42500e+002
            76  5.62854e+002  7.60000e+001 -1.16046e+002  8.81877e+000  5.43333e+002
            77  5.63681e+002  7.70000e+001 -1.16396e+002  8.81911e+000  5.44167e+002
            78  5.64492e+002  7.80000e+001 -1.16752e+002  8.81944e+000  5.45000e+002
            79  5.65308e+002  7.90000e+001 -1.17108e+002  8.81975e+000  5.45833e+002
            80  5.66134e+002  8.00000e+001 -1.17463e+002  8.82006e+000  5.46667e+002
            81  5.66952e+002  8.10000e+001 -1.17801e+002  8.82032e+000  5.47500e+002
            82  5.67769e+002  8.20000e+001 -1.18145e+002  8.82060e+000  5.48333e+002
            83  5.68580e+002  8.30000e+001 -1.18491e+002  8.82089e+000  5.49167e+002
            84  5.69393e+002  8.40000e+001 -1.18836e+002  8.82118e+000  5.50000e+002
            85  5.70214e+002  8.50000e+001 -1.19159e+002  8.82147e+000  5.50833e+002
            86  5.71030e+002  8.60000e+001 -1.19492e+002  8.82176e+000  5.51667e+002
            87  5.71842e+002  8.70000e+001 -1.19826e+002  8.82205e+000  5.52500e+002
            88  5.72657e+002  8.80000e+001 -1.20157e+002  8.82234e+000  5.53333e+002
            89  5.73471e+002  8.90000e+001 -1.20487e+002  8.82263e+000  5.54167e+002
            90  5.74285e+002  9.00000e+001 -1.20802e+002  8.82291e+000  5.55000e+002
            91  5.75098e+002  9.10000e+001 -1.21123e+002  8.82318e+000  5.55833e+002
            92  5.75908e+002  9.20000e+001 -1.21444e+002  8.82344e+000  5.56667e+002
            93  5.76719e+002  9.30000e+001 -1.21761e+002  8.82371e+000  5.57500e+002
            94  5.77528e+002  9.40000e+001 -1.22065e+002  8.82395e+000  5.58333e+002
            95  5.78346e+002  9.50000e+001 -1.22375e+002  8.82419e+000  5.59167e+002
            96  5.79151e+002  9.60000e+001 -1.22682e+002  8.82444e+000  5.60000e+002
            97  5.79960e+002  9.70000e+001 -1.22987e+002  8.82468e+000  5.60833e+002
            98  5.80770e+002  9.80000e+001 -1.23274e+002  8.82491e+000  5.61667e+002
            99  5.81582e+002  9.90000e+001 -1.23571e+002  8.82514e+000  5.62500e+002
           100  5.82394e+002  1.00000e+002 -1.23874e+002  8.82537e+000  5.63333e+002
           101  5.83203e+002  1.01000e+002 -1.24177e+002  8.82560e+000  5.64167e+002
           102  5.84017e+002  1.02000e+002 -1.24426e+002  8.82582e+000  5.65000e+002
           103  5.84818e+002  1.03000e+002 -1.24700e+002  8.82605e+000  5.65833e+002
           104  5.85630e+002  1.04000e+002 -1.24977e+002  8.82628e+000  5.66667e+002
           105  5.86438e+002  1.05000e+002 -1.25254e+002  8.82651e+000  5.67500e+002
           106  5.87245e+002  1.06000e+002 -1.25509e+002  8.82676e+000  5.68333e+002
           107  5.88051e+002  1.07000e+002 -1.25774e+002  8.82700e+000  5.69167e+002
           108  5.88859e+002  1.08000e+002 -1.26037e+002  8.82725e+000  5.70000e+002
           109  5.89666e+002  1.09000e+002 -1.26299e+002  8.82749e+000  5.70833e+002
           110  5.90486e+002  1.10000e+002 -1.26543e+002  8.82775e+000  5.71667e+002
           111  5.91286e+002  1.11000e+002 -1.26794e+002  8.82800e+000  5.72500e+002
           112  5.92095e+002  1.12000e+002 -1.27045e+002  8.82824e+000  5.73333e+002
           113  5.92893e+002  1.13000e+002 -1.27294e+002  8.82849e+000  5.74167e+002
           114  5.93703e+002  1.14000e+002 -1.27527e+002  8.82871e+000  5.75000e+002
           115  5.94520e+002  1.15000e+002 -1.27767e+002  8.82893e+000  5.75833e+002
           116  5.95330e+002  1.16000e+002 -1.28005e+002  8.82915e+000  5.76667e+002
           117  5.96134e+002  1.17000e+002 -1.28244e+002  8.82935e+000  5.77500e+002
           118  5.96944e+002  1.18000e+002 -1.28462e+002  8.82953e+000  5.78333e+002
           119  5.97748e+002  1.19000e+002 -1.28688e+002  8.82971e+000  5.79167e+002
           120  5.98556e+002  1.20000e+002 -1.28913e+002  8.82989e+000  5.80000e+002
           121  5.99360e+002  1.21000e+002 -1.29138e+002  8.83006e+000  5.80833e+002
           122  6.00166e+002  1.22000e+002 -1.29344e+002  8.83021e+000  5.81667e+002
           123  6.00972e+002  1.23000e+002 -1.29555e+002  8.83036e+000  5.82500e+002
           124  6.01778e+002  1.24000e+002 -1.29769e+002  8.83052e+000  5.83333e+002
           125  6.02585e+002  1.25000e+002 -1.29988e+002  8.83068e+000  5.84167e+002
           126  6.03392e+002  1.26000e+002 -1.30169e+002  8.83083e+000  5.85000e+002
           127  6.04195e+002  1.27000e+002 -1.30363e+002  8.83100e+000  5.85833e+002
           128  6.05005e+002  1.28000e+002 -1.30559e+002  8.83117e+000  5.86667e+002
           129  6.05813e+002  1.29000e+002 -1.30754e+002  8.83135e+000  5.87500e+002
           130  6.06620e+002  1.30000e+002 -1.30928e+002  8.83155e+000  5.88333e+002
           131  6.07418e+002  1.31000e+002 -1.31111e+002  8.83176e+000  5.89167e+002
           132  6.08227e+002  1.32000e+002 -1.31293e+002  8.83197e+000  5.90000e+002
           133  6.09036e+002  1.33000e+002 -1.31474e+002  8.83218e+000  5.90833e+002
           134  6.09844e+002  1.34000e+002 -1.31635e+002  8.83242e+000  5.91667e+002
           135  6.10659e+002  1.35000e+002 -1.31803e+002  8.83264e+000  5.92500e+002
           136  6.11460e+002  1.36000e+002 -1.31973e+002  8.83285e+000  5.93333e+002
           137  6.12263e+002  1.37000e+002 -1.32141e+002  8.83305e+000  5.94167e+002
           138  6.13070e+002  1.38000e+002 -1.32292e+002  8.83323e+000  5.95000e+002
           139  6.13873e+002  1.39000e+002 -1.32449e+002  8.83341e+000  5.95833e+002
           140  6.14676e+002  1.40000e+002 -1.32606e+002  8.83358e+000  5.96667e+002
           141  6.15484e+002  1.41000e+002 -1.32763e+002  8.83376e+000  5.97500e+002
           142  6.16294e+002  1.42000e+002 -1.32903e+002  8.83391e+000  5.98333e+002
           143  6.17100e+002  1.43000e+002 -1.33051e+002  8.83407e+000  5.99167e+002
           144  6.17905e+002  1.44000e+002 -1.33199e+002  8.83424e+000  6.00000e+002
           145  6.18709e+002  1.45000e+002 -1.33344e+002  8.83440e+000  6.00833e+002
           146  6.19512e+002  1.46000e+002 -1.33477e+002  8.83456e+000  6.01667e+002
           147  6.20324e+002  1.47000e+002 -1.33615e+002  8.83470e+000  6.02500e+002
           148  6.21134e+002  1.48000e+002 -1.33752e+002  8.83484e+000  6.03333e+002
           149  6.21939e+002  1.49000e+002 -1.33886e+002  8.83496e+000  6.04167e+002
           150  6.22736e+002  1.50000e+002 -1.34009e+002  8.83507e+000  6.05000e+002
           151  6.23539e+002  1.51000e+002 -1.34138e+002  8.83517e+000  6.05833e+002
           152  6.24349e+002  1.52000e+002 -1.34265e+002  8.83528e+000  6.06667e+002
           153  6.25157e+002  1.53000e+002 -1.34391e+002  8.83539e+000  6.07500e+002
           154  6.25963e+002  1.54000e+002 -1.34501e+002  8.83548e+000  6.08333e+002
           155  6.26768e+002  1.55000e+002 -1.34618e+002  8.83559e+000  6.09167e+002
           156  6.27570e+002  1.56000e+002 -1.34734e+002  8.83569e+000  6.10000e+002
           157  6.28377e+002  1.57000e+002 -1.34849e+002  8.83580e+000  6.10833e+002
           158  6.29186e+002  1.58000e+002 -1.34963e+002  8.83590e+000  6.11667e+002
           159  6.29990e+002  1.59000e+002 -1.35062e+002  8.83601e+000  6.12500e+002
           160  6.30796e+002  1.60000e+002 -1.35167e+002  8.83611e+000  6.13333e+002
           161  6.31595e+002  1.61000e+002 -1.35272e+002  8.83620e+000  6.14167e+002
           162  6.32406e+002  1.62000e+002 -1.35375e+002  8.83628e+000  6.15000e+002
           163  6.33215e+002  1.63000e+002 -1.35462e+002  8.83635e+000  6.15833e+002
           164  6.34020e+002  1.64000e+002 -1.35554e+002  8.83641e+000  6.16667e+002
           165  6.34826e+002  1.65000e+002 -1.35647e+002  8.83648e+000  6.17500e+002
           166  6.35638e+002  1.66000e+002 -1.35739e+002  8.83654e+000  6.18333e+002
           167  6.36436e+002  1.67000e+002 -1.35814e+002  8.83658e+000  6.19167e+002
           168  6.37239e+002  1.68000e+002 -1.35896e+002  8.83664e+000  6.20000e+002
           169  6.38044e+002  1.69000e+002 -1.35976e+002  8.83671e+000  6.20833e+002
           170  6.38852e+002  1.70000e+002 -1.36056e+002  8.83679e+000  6.21667e+002
           171  6.39666e+002  1.71000e+002 -1.36118e+002  8.83689e+000  6.22500e+002
           172  6.40466e+002  1.72000e+002 -1.36187e+002  8.83700e+000  6.23333e+002
           173  6.41270e+002  1.73000e+002 -1.36255e+002  8.83711e+000  6.24167e+002
           174  6.42078e+002  1.74000e+002 -1.36322e+002  8.83724e+000  6.25000e+002
           175  6.42881e+002  1.75000e+002 -1.36375e+002  8.83740e+000  6.25833e+002
           176  6.43688e+002  1.76000e+002 -1.36432e+002  8.83755e+000  6.26667e+002
           177  6.44489e+002  1.77000e+002 -1.36489e+002  8.83769e+000  6.27500e+002
           178  6.45291e+002  1.78000e+002 -1.36546e+002  8.83784e+000  6.28333e+002
           179  6.46095e+002  1.79000e+002 -1.36586e+002  8.83797e+000  6.29167e+002
           180  6.46905e+002  1.80000e+002 -1.36632e+002  8.83809e+000  6.30000e+002
           181  6.47714e+002  1.81000e+002 -1.36678e+002  8.83821e+000  6.30833e+002
           182  6.48519e+002  1.82000e+002 -1.36722e+002  8.83832e+000  6.31667e+002
           183  6.49325e+002  1.83000e+002 -1.36752e+002  8.83841e+000  6.32500e+002
           184  6.50132e+002  1.84000e+002 -1.36789e+002  8.83852e+000  6.33333e+002
           185  6.50940e+002  1.85000e+002 -1.36829e+002  8.83864e+000  6.34167e+002
           186  6.51742e+002  1.86000e+002 -1.36868e+002  8.83876e+000  6.35000e+002
           187  6.52539e+002  1.87000e+002 -1.36897e+002  8.83891e+000  6.35833e+002
           188  6.53347e+002  1.88000e+002 -1.36933e+002  8.83905e+000  6.36667e+002
           189  6.54161e+002  1.89000e+002 -1.36974e+002  8.83920e+000  6.37500e+002
           190  6.54964e+002  1.90000e+002 -1.37021e+002  8.83934e+000  6.38333e+002
           191  6.55768e+002  1.91000e+002 -1.37053e+002  8.83949e+000  6.39167e+002
           192  6.56573e+002  1.92000e+002 -1.37089e+002  8.83963e+000  6.40000e+002
           193  6.57375e+002  1.93000e+002 -1.37127e+002  8.83974e+000  6.40833e+002
           194  6.58189e+002  1.94000e+002 -1.37165e+002  8.83984e+000  6.41667e+002
           195  6.58991e+002  1.95000e+002 -1.37218e+002  8.83988e+000  6.42500e+002
           196  6.59798e+002  1.96000e+002 -1.37264e+002  8.83993e+000  6.43333e+002
           197  6.60596e+002  1.97000e+002 -1.37320e+002  8.83996e+000  6.44167e+002
           198  6.61401e+002  1.98000e+002 -1.37391e+002  8.83999e+000  6.45000e+002
           199  6.62203e+002  1.99000e+002 -1.37636e+002  8.83997e+000  6.45833e+002
           200  6.63006e+002  2.00000e+002 -1.37954e+002  8.83997e+000  6.46667e+002
           201  6.63802e+002  2.01000e+002 -1.38388e+002  8.83996e+000  6.47500e+002
           202  6.64597e+002  2.02000e+002 -1.38914e+002  8.83996e+000  6.48333e+002
           203  6.65394e+002  2.03000e+002 -1.39659e+002  8.83996e+000  6.49167e+002
           204  6.66188e+002  2.04000e+002 -1.40482e+002  8.83997e+000  6.50000e+002
           205  6.66975e+002  2.05000e+002 -1.41419e+002  8.84000e+000  6.50833e+002
           206  6.67768e+002  2.06000e+002 -1.42429e+002  8.84002e+000  6.51667e+002
           207  6.68556e+002  2.07000e+002 -1.43604e+002  8.84009e+000  6.52500e+002
           208  6.69337e+002  2.08000e+002 -1.44853e+002  8.84015e+000  6.53333e+002
           209  6.70122e+002  2.09000e+002 -1.46202e+002  8.84022e+000  6.54167e+002
           210  6.70897e+002  2.10000e+002 -1.47620e+002  8.84029e+000  6.55000e+002
           211  6.71682e+002  2.11000e+002 -1.49186e+002  8.84038e+000  6.55833e+002
           212  6.72467e+002  2.12000e+002 -1.50824e+002  8.84046e+000  6.56667e+002
           213  6.73243e+002  2.13000e+002 -1.52545e+002  8.84053e+000  6.57500e+002
           214  6.74019e+002  2.14000e+002 -1.54273e+002  8.84060e+000  6.58333e+002
           215  6.74792e+002  2.15000e+002 -1.56163e+002  8.84066e+000  6.59167e+002
           216  6.75566e+002  2.16000e+002 -1.58110e+002  8.84073e+000  6.60000e+002
           217  6.76339e+002  2.17000e+002 -1.60145e+002  8.84081e+000  6.60833e+002
           218  6.77102e+002  2.18000e+002 -1.62216e+002  8.84089e+000  6.61667e+002
           219  6.77869e+002  2.19000e+002 -1.64333e+002  8.84100e+000  6.62500e+002
           220  6.78639e+002  2.20000e+002 -1.66447e+002  8.84112e+000  6.63333e+002
           221  6.79411e+002  2.21000e+002 -1.68615e+002  8.84124e+000  6.64167e+002
           222  6.80176e+002  2.22000e+002 -1.70817e+002  8.84137e+000  6.65000e+002
           223  6.80942e+002  2.23000e+002 -1.73127e+002  8.84154e+000  6.65833e+002
           224  6.81707e+002  2.24000e+002 -1.75457e+002  8.84167e+000  6.66667e+002
           225  6.82471e+002  2.25000e+002 -1.77797e+002  8.84179e+000  6.67500e+002
           226  6.83230e+002  2.26000e+002 -1.80153e+002  8.84190e+000  6.68333e+002
           227  6.83997e+002  2.27000e+002 -1.82590e+002  8.84198e+000  6.69167e+002
           228  6.84759e+002  2.28000e+002 -1.84974e+002  8.84205e+000  6.70000e+002
           229  6.85521e+002  2.29000e+002 -1.87356e+002  8.84210e+000  6.70833e+002
           230  6.86279e+002  2.30000e+002 -1.89746e+002  8.84214e+000  6.71667e+002
           231  6.87047e+002  2.31000e+002 -1.92138e+002  8.84212e+000  6.72500e+002
           232  6.87806e+002  2.32000e+002 -1.94492e+002  8.84211e+000  6.73333e+002
           233  6.88575e+002  2.33000e+002 -1.96730e+002  8.84210e+000  6.74167e+002
           234  6.89339e+002  2.34000e+002 -1.98891e+002  8.84208e+000  6.75000e+002
           235  6.90098e+002  2.35000e+002 -2.00843e+002  8.84203e+000  6.75833e+002
           236  6.90868e+002  2.36000e+002 -2.02518e+002  8.84201e+000  6.76667e+002
           237  6.91648e+002  2.37000e+002 -2.03676e+002  8.84200e+000  6.77500e+002
           238  6.92443e+002  2.38000e+002 -2.04338e+002  8.84200e+000  6.78333e+002
           239  6.93248e+002  2.39000e+002 -2.03710e+002  8.84203e+000  6.79167e+002
           240  6.94065e+002  2.40000e+002 -2.02558e+002  8.84205e+000  6.80000e+002
           241  6.94884e+002  2.41000e+002 -2.00906e+002  8.84206e+000  6.80833e+002
           242  6.95722e+002  2.42000e+002 -1.98945e+002  8.84208e+000  6.81667e+002
           243  6.96550e+002  2.43000e+002 -1.96660e+002  8.84211e+000  6.82500e+002
           244  6.97379e+002  2.44000e+002 -1.94280e+002  8.84212e+000  6.83333e+002
           245  6.98222e+002  2.45000e+002 -1.91811e+002  8.84212e+000  6.84167e+002
           246  6.99068e+002  2.46000e+002 -1.89325e+002  8.84213e+000  6.85000e+002
           247  6.99908e+002  2.47000e+002 -1.86848e+002  8.84210e+000  6.85833e+002
           248  7.00746e+002  2.48000e+002 -1.84377e+002  8.84209e+000  6.86667e+002
           249  7.01585e+002  2.49000e+002 -1.81921e+002  8.84207e+000  6.87500e+002
           250  7.02422e+002  2.50000e+002 -1.79520e+002  8.84205e+000  6.88333e+002
           251  7.03263e+002  2.51000e+002 -1.77158e+002  8.84203e+000  6.89167e+002
           252  7.04106e+002  2.52000e+002 -1.74877e+002  8.84200e+000  6.90000e+002
           253  7.04941e+002  2.53000e+002 -1.72665e+002  8.84197e+000  6.90833e+002
           254  7.05774e+002  2.54000e+002 -1.70555e+002  8.84195e+000  6.91667e+002
           255  7.06613e+002  2.55000e+002 -1.68525e+002  8.84193e+000  6.92500e+002
           256  7.07444e+002  2.56000e+002 -1.66556e+002  8.84192e+000  6.93333e+002
           257  7.08276e+002  2.57000e+002 -1.64663e+002  8.84191e+000  6.94167e+002
           258  7.09112e+002  2.58000e+002 -1.62880e+002  8.84191e+000  6.95000e+002
           259  7.09944e+002  2.59000e+002 -1.61188e+002  8.84190e+000  6.95833e+002
           260  7.10774e+002  2.60000e+002 -1.59559e+002  8.84191e+000  6.96667e+002
           261  7.11601e+002  2.61000e+002 -1.58007e+002  8.84191e+000  6.97500e+002
           262  7.12431e+002  2.62000e+002 -1.56548e+002  8.84191e+000  6.98333e+002
           263  7.13261e+002  2.63000e+002 -1.55117e+002  8.84190e+000  6.99167e+002
           264  7.14086e+002  2.64000e+002 -1.53792e+002  8.84187e+000  7.00000e+002
           265  7.14919e+002  2.65000e+002 -1.52492e+002  8.84185e+000  7.00833e+002
           266  7.15741e+002  2.66000e+002 -1.51295e+002  8.84182e+000  7.01667e+002
           267  7.16564e+002  2.67000e+002 -1.50125e+002  8.84180e+000  7.02500e+002
           268  7.17390e+002  2.68000e+002 -1.49067e+002  8.84177e+000  7.03333e+002
           269  7.18216e+002  2.69000e+002 -1.48031e+002  8.84175e+000  7.04167e+002
           270  7.19036e+002  2.70000e+002 -1.47050e+002  8.84173e+000  7.05000e+002
           271  7.19868e+002  2.71000e+002 -1.46115e+002  8.84172e+000  7.05833e+002
           272  7.20686e+002  2.72000e+002 -1.45275e+002  8.84172e+000  7.06667e+002
           273  7.21502e+002  2.73000e+002 -1.44449e+002  8.84171e+000  7.07500e+002
           274  7.22328e+002  2.74000e+002 -1.43665e+002  8.84170e+000  7.08333e+002
           275  7.23142e+002  2.75000e+002 -1.42914e+002  8.84169e+000  7.09167e+002
           276  7.23964e+002  2.76000e+002 -1.42263e+002  8.84166e+000  7.10000e+002
           277  7.24780e+002  2.77000e+002 -1.41604e+002  8.84163e+000  7.10833e+002
           278  7.25598e+002  2.78000e+002 -1.40971e+002  8.84160e+000  7.11667e+002
           279  7.26416e+002  2.79000e+002 -1.40358e+002  8.84157e+000  7.12500e+002
           280  7.27228e+002  2.80000e+002 -1.39826e+002  8.84152e+000  7.13333e+002
           281  7.28045e+002  2.81000e+002 -1.39288e+002  8.84148e+000  7.14167e+002
           282  7.28868e+002  2.82000e+002 -1.38774e+002  8.84145e+000  7.15000e+002
           283  7.29678e+002  2.83000e+002 -1.38290e+002  8.84143e+000  7.15833e+002
           284  7.30497e+002  2.84000e+002 -1.37843e+002  8.84142e+000  7.16667e+002
           285  7.31305e+002  2.85000e+002 -1.37384e+002  8.84144e+000  7.17500e+002
           286  7.32125e+002  2.86000e+002 -1.36928e+002  8.84146e+000  7.18333e+002
           287  7.32935e+002  2.87000e+002 -1.36495e+002  8.84150e+000  7.19167e+002
           288  7.33750e+002  2.88000e+002 -1.36127e+002  8.84159e+000  7.20000e+002
           289  7.34562e+002  2.89000e+002 -1.35753e+002  8.84165e+000  7.20833e+002
           290  7.35382e+002  2.90000e+002 -1.35397e+002  8.84170e+000  7.21667e+002
           291  7.36193e+002  2.91000e+002 -1.35058e+002  8.84175e+000  7.22500e+002
           292  7.37008e+002  2.92000e+002 -1.34792e+002  8.84177e+000  7.23333e+002
           293  7.37815e+002  2.93000e+002 -1.34512e+002  8.84176e+000  7.24167e+002
           294  7.38622e+002  2.94000e+002 -1.34227e+002  8.84174e+000  7.25000e+002
           295  7.39438e+002  2.95000e+002 -1.33948e+002  8.84169e+000  7.25833e+002
           296  7.40252e+002  2.96000e+002 -1.33719e+002  8.84155e+000  7.26667e+002
           297  7.41065e+002  2.97000e+002 -1.33466e+002  8.84144e+000  7.27500e+002
           298  7.41879e+002  2.98000e+002 -1.33222e+002  8.84133e+000  7.28333e+002
           299  7.42687e+002  2.99000e+002 -1.32985e+002  8.84121e+000  7.29167e+002
           300  7.43496e+002  3.00000e+002 -1.32801e+002  8.84106e+000  7.30000e+002
           301  7.44308e+002  3.01000e+002 -1.32596e+002  8.84095e+000  7.30833e+002
           302  7.45120e+002  3.02000e+002 -1.32392e+002  8.84085e+000  7.31667e+002
           303  7.45932e+002  3.03000e+002 -1.32190e+002  8.84076e+000  7.32500e+002
           304  7.46738e+002  3.04000e+002 -1.32042e+002  8.84072e+000  7.33333e+002
           305  7.47546e+002  3.05000e+002 -1.31862e+002  8.84067e+000  7.34167e+002
           306  7.48357e+002  3.06000e+002 -1.31676e+002  8.84063e+000  7.35000e+002
           307  7.49166e+002  3.07000e+002 -1.31500e+002  8.84059e+000  7.35833e+002
           308  7.49980e+002  3.08000e+002 -1.31361e+002  8.84058e+000  7.36667e+002
           309  7.50793e+002  3.09000e+002 -1.31207e+002  8.84055e+000  7.37500e+002
           310  7.51601e+002  3.10000e+002 -1.31048e+002  8.84051e+000  7.38333e+002
           311  7.52404e+002  3.11000e+002 -1.30885e+002  8.84047e+000  7.39167e+002
           312  7.53212e+002  3.12000e+002 -1.30771e+002  8.84041e+000  7.40000e+002
           313  7.54018e+002  3.13000e+002 -1.30634e+002  8.84035e+000  7.40833e+002
           314  7.54833e+002  3.14000e+002 -1.30495e+002  8.84030e+000  7.41667e+002
           315  7.55646e+002  3.15000e+002 -1.30357e+002  8.84024e+000  7.42500e+002
           316  7.56448e+002  3.16000e+002 -1.30238e+002  8.84019e+000  7.43333e+002
           317  7.57252e+002  3.17000e+002 -1.30109e+002  8.84014e+000  7.44167e+002
           318  7.58062e+002  3.18000e+002 -1.29978e+002  8.84010e+000  7.45000e+002
           319  7.58876e+002  3.19000e+002 -1.29848e+002  8.84005e+000  7.45833e+002
           320  7.59683e+002  3.20000e+002 -1.29728e+002  8.84002e+000  7.46667e+002
           321  7.60496e+002  3.21000e+002 -1.29601e+002  8.83997e+000  7.47500e+002
           322  7.61306e+002  3.22000e+002 -1.29474e+002  8.83993e+000  7.48333e+002
           323  7.62111e+002  3.23000e+002 -1.29347e+002  8.83988e+000  7.49167e+002
           324  7.62915e+002  3.24000e+002 -1.29226e+002  8.83983e+000  7.50000e+002
           325  7.63724e+002  3.25000e+002 -1.29104e+002  8.83979e+000  7.50833e+002
           326  7.64541e+002  3.26000e+002 -1.28983e+002  8.83976e+000  7.51667e+002
           327  7.65349e+002  3.27000e+002 -1.28863e+002  8.83974e+000  7.52500e+002
           328  7.66153e+002  3.28000e+002 -1.28744e+002  8.83975e+000  7.53333e+002
           329  7.66959e+002  3.29000e+002 -1.28627e+002  8.83976e+000  7.54167e+002
           330  7.67768e+002  3.30000e+002 -1.28513e+002  8.83980e+000  7.55000e+002
           331  7.68574e+002  3.31000e+002 -1.28401e+002  8.83984e+000  7.55833e+002
           332  7.69390e+002  3.32000e+002 -1.28299e+002  8.83993e+000  7.56667e+002
           333  7.70196e+002  3.33000e+002 -1.28193e+002  8.83998e+000  7.57500e+002
           334  7.71004e+002  3.34000e+002 -1.28088e+002  8.84001e+000  7.58333e+002
           335  7.71811e+002  3.35000e+002 -1.27984e+002  8.84002e+000  7.59167e+002
           336  7.72622e+002  3.36000e+002 -1.27894e+002  8.83997e+000  7.60000e+002
           337  7.73428e+002  3.37000e+002 -1.27796e+002  8.83990e+000  7.60833e+002
           338  7.74239e+002  3.38000e+002 -1.27697e+002  8.83981e+000  7.61667e+002
           339  7.75037e+002  3.39000e+002 -1.27600e+002  8.83970e+000  7.62500e+002
           340  7.75847e+002  3.40000e+002 -1.27510e+002  8.83948e+000  7.63333e+002
           341  7.76651e+002  3.41000e+002 -1.27418e+002  8.83932e+000  7.64167e+002
           342  7.77458e+002  3.42000e+002 -1.27326e+002  8.83917e+000  7.65000e+002
           343  7.78259e+002  3.43000e+002 -1.27234e+002  8.83903e+000  7.65833e+002
           344  7.79063e+002  3.44000e+002 -1.27144e+002  8.83890e+000  7.66667e+002
           345  7.79867e+002  3.45000e+002 -1.27058e+002  8.83881e+000  7.67500e+002
           346  7.80672e+002  3.46000e+002 -1.26968e+002  8.83873e+000  7.68333e+002
           347  7.81478e+002  3.47000e+002 -1.26878e+002  8.83865e+000  7.69167e+002
           348  7.82278e+002  3.48000e+002 -1.26787e+002  8.83859e+000  7.70000e+002
           349  7.83088e+002  3.49000e+002 -1.26701e+002  8.83857e+000  7.70833e+002
           350  7.83901e+002  3.50000e+002 -1.26612e+002  8.83853e+000  7.71667e+002
           351  7.84704e+002  3.51000e+002 -1.26523e+002  8.83847e+000  7.72500e+002
           352  7.85517e+002  3.52000e+002 -1.26433e+002  8.83842e+000  7.73333e+002
           353  7.86323e+002  3.53000e+002 -1.26341e+002  8.83836e+000  7.74167e+002
           354  7.87134e+002  3.54000e+002 -1.26249e+002  8.83831e+000  7.75000e+002
           355  7.87945e+002  3.55000e+002 -1.26156e+002  8.83826e+000  7.75833e+002
           356  7.88756e+002  3.56000e+002 -1.26062e+002  8.83822e+000  7.76667e+002
           357  7.89562e+002  3.57000e+002 -1.25965e+002  8.83820e+000  7.77500e+002
           358  7.90375e+002  3.58000e+002 -1.25871e+002  8.83819e+000  7.78333e+002
           359  7.91184e+002  3.59000e+002 -1.25777e+002  8.83818e+000  7.79167e+002
           360  7.91994e+002  3.60000e+002 -1.25683e+002  8.83817e+000  7.80000e+002
           361  7.92799e+002  3.61000e+002 -1.25584e+002  8.83820e+000  7.80833e+002
           362  7.93606e+002  3.62000e+002 -1.25487e+002  8.83822e+000  7.81667e+002
           363  7.94408e+002  3.63000e+002 -1.25391e+002  8.83823e+000  7.82500e+002
           364  7.95214e+002  3.64000e+002 -1.25296e+002  8.83825e+000  7.83333e+002
           365  7.96024e+002  3.65000e+002 -1.25201e+002  8.83825e+000  7.84167e+002
           366  7.96831e+002  3.66000e+002 -1.25107e+002  8.83825e+000  7.85000e+002
           367  7.97639e+002  3.67000e+002 -1.25014e+002  8.83823e+000  7.85833e+002
           368  7.98440e+002  3.68000e+002 -1.24920e+002  8.83821e+000  7.86667e+002
           369  7.99246e+002  3.69000e+002 -1.24829e+002  8.83814e+000  7.87500e+002
           370  8.00047e+002  3.70000e+002 -1.24738e+002  8.83808e+000  7.88333e+002
           371  8.00852e+002  3.71000e+002 -1.24646e+002  8.83801e+000  7.89167e+002
           372  8.01644e+002  3.72000e+002 -1.24554e+002  8.83793e+000  7.90000e+002
           373  8.02459e+002  3.73000e+002 -1.24468e+002  8.83783e+000  7.90833e+002
           374  8.03265e+002  3.74000e+002 -1.24379e+002  8.83774e+000  7.91667e+002
           375  8.04075e+002  3.75000e+002 -1.24291e+002  8.83766e+000  7.92500e+002
           376  8.04881e+002  3.76000e+002 -1.24203e+002  8.83757e+000  7.93333e+002
           377  8.05687e+002  3.77000e+002 -1.24117e+002  8.83747e+000  7.94167e+002
           378  8.06494e+002  3.78000e+002 -1.24032e+002  8.83737e+000  7.95000e+002
           379  8.07295e+002  3.79000e+002 -1.23947e+002  8.83726e+000  7.95833e+002
           380  8.08096e+002  3.80000e+002 -1.23863e+002  8.83715e+000  7.96667e+002
           381  8.08914e+002  3.81000e+002 -1.23786e+002  8.83701e+000  7.97500e+002
           382  8.09730e+002  3.82000e+002 -1.23707e+002  8.83690e+000  7.98333e+002
           383  8.10530e+002  3.83000e+002 -1.23628e+002  8.83679e+000  7.99167e+002
           384  8.11344e+002  3.84000e+002 -1.23548e+002  8.83670e+000  8.00000e+002
           385  8.12150e+002  3.85000e+002 -1.23477e+002  8.83663e+000  8.00833e+002
           386  8.12959e+002  3.86000e+002 -1.23401e+002  8.83656e+000  8.01667e+002
           387  8.13760e+002  3.87000e+002 -1.23324e+002  8.83649e+000  8.02500e+002
           388  8.14571e+002  3.88000e+002 -1.23246e+002  8.83643e+000  8.03333e+002
           389  8.15381e+002  3.89000e+002 -1.23176e+002  8.83639e+000  8.04167e+002
           390  8.16182e+002  3.90000e+002 -1.23102e+002  8.83633e+000  8.05000e+002
           391  8.16995e+002  3.91000e+002 -1.23027e+002  8.83626e+000  8.05833e+002
           392  8.17801e+002  3.92000e+002 -1.22953e+002  8.83619e+000  8.06667e+002
           393  8.18607e+002  3.93000e+002 -1.22880e+002  8.83610e+000  8.07500e+002
           394  8.19419e+002  3.94000e+002 -1.22808e+002  8.83602e+000  8.08333e+002
           395  8.20220e+002  3.95000e+002 -1.22731e+002  8.83596e+000  8.09167e+002
]1[Al RR Ar 50ml/min tot method calib
